File: TGA/TPS-NPTiO2.txt
[TA Ascii File]
DTG-60

File Name :	C:\TAData\Caro Iacovone\TPS-NPTiO2.txt

[File Information]
File Name:	TPS-NPTiO2.tad
Sample Name:	TPS-NPTiO2
Lot No:	001
Acquire Date:	22/03/22
Acquire Time:	15:33:16(-0300)
Detector Type:	DTG-60
Detector Serial No:	C30564800519TK
Operator:	Carolina Iacovone
Atmosphere:	Nitrogen
Gas Flow:	30[ml/min]
Annotation:
Pan Name:	Aluminum
Sample Weight:	7.620[mg]
Molecular Weight:	0.00

[Measurements Program]
[Temperature Program]
Start Temp.
Temp. Rate	Hold Temp.	Hold Time	Gas
[ C/min  ]	[   C  ]	[ min  ]
3.00	30.0	10
10.00	450.0	0

[Data]
Time	Temp	DTA	TGA
sec	C	uV	mg
0.000000	28.7872	-2.219669	7.620259
11	28.9261	-2.240595	7.624232
22	29.1759	-2.611280	7.618870
33	29.38	-2.863854	7.611820
44	29.5332	-2.895555	7.617183
55	29.6664	-2.831921	7.607650
66	29.7371	-2.752164	7.610928
77	29.792	-2.653994	7.611921
88	29.8571	-2.551455	7.610332
99	29.9273	-2.461401	7.611027
110	29.9718	-2.377063	7.612219
121	29.9817	-2.303521	7.606658
132	29.9937	-2.230033	7.610134
143	30.0229	-2.160386	7.602090
154	30.0458	-2.102160	7.607751
165	30.0706	-2.048546	7.603282
176	30.0428	-1.999111	7.602686
187	30.0488	-1.958023	7.600005
198	30.0575	-1.919738	7.604374
209	30.0797	-1.882766	7.608446
220	30.0718	-1.848486	7.600502
231	30.0443	-1.814475	7.606063
242	30.0563	-1.801040	7.607850
253	30.0646	-1.767403	7.606063
264	30.0714	-1.745266	7.605069
275	30.0487	-1.721552	7.603679
286	30.0255	-1.699517	7.591961
297	30.0334	-1.679653	7.594941
308	30.0471	-1.663594	7.599707
319	30.0552	-1.649558	7.600303
330	30.0254	-1.634527	7.601495
341	30.0097	-1.616022	7.588684
352	30.0144	-1.599504	7.596430
363	30.018	-1.586291	7.591862
374	30.0352	-1.583385	7.594742
385	29.9943	-1.574070	7.593451
396	29.9895	-1.557201	7.584116
407	30.0022	-1.543153	7.589876
418	30.0109	-1.526407	7.585606
429	30.0044	-1.519693	7.594642
440	29.9681	-1.511884	7.593649
451	29.9744	-1.499093	7.590869
462	29.9814	-1.489009	7.572398
473	30.0079	-1.474688	7.588188
484	29.9849	-1.466788	7.589081
495	29.961	-1.447390	7.587393
506	29.9677	-1.441028	7.576966
517	29.9747	-1.422973	7.586400
528	29.9873	-1.415962	7.578356
539	29.9575	-1.411497	7.587095
550	29.943	-1.403354	7.585208
561	29.9577	-1.388931	7.574980
572	29.9661	-1.374043	7.578157
583	29.9771	-1.366307	7.576370
594	29.944	-1.360198	7.582229
605	29.9305	-1.343669	7.576072
616	30.0488	-1.341237	7.574483
627	30.5017	-1.672982	7.577960
638	31.2212	-2.381853	7.573097
649	32.1568	-3.216657	7.575683
660	33.3026	-4.027689	7.577076
671	34.6193	-4.771539	7.577577
682	36.0612	-5.422435	7.562786
693	37.5937	-5.984348	7.568451
704	39.2	-6.462620	7.567960
715	40.89	-6.883009	7.570944
726	42.6222	-7.260585	7.562807
737	44.3968	-7.621628	7.561125
748	46.1812	-7.983868	7.556463
759	48.009	-8.373970	7.557662
770	49.8667	-8.795585	7.561143
781	51.7502	-9.286659	7.558965
792	53.6084	-9.689138	7.547253
803	55.4563	-10.0761	7.546166
814	57.3361	-10.4771	7.540115
825	59.2406	-10.8881	7.532673
836	61.1483	-11.3042	7.521855
847	63.0174	-11.7172	7.530501
858	64.8789	-12.11	7.514718
869	66.7797	-12.4861	7.512241
880	68.6945	-12.863	7.507382
891	70.5906	-13.2391	7.498749
902	72.4411	-13.6046	7.488924
913	74.2992	-13.9566	7.486944
924	76.1785	-14.3062	7.475530
935	78.0867	-14.642	7.470372
946	79.9866	-14.9409	7.463626
957	81.8308	-15.2122	7.446651
968	83.6838	-15.4438	7.438613
979	85.565	-15.664	7.424915
990	87.4528	-15.8301	7.423729
1001	89.3337	-15.9579	7.412018
1012	91.1696	-16.0404	7.393752
1023	93.0372	-16.0651	7.387700
1034	94.9157	-16.0484	7.360397
1045	96.8061	-15.9675	7.356034
1056	98.6881	-15.8337	7.352764
1067	100.542	-15.6284	7.343038
1078	102.411	-15.3686	7.328049
1089	104.278	-15.0517	7.308194
1100	106.161	-14.6712	7.298071
1111	108.026	-14.2438	7.283778
1122	109.887	-13.7783	7.279315
1133	111.757	-13.2558	7.266510
1144	113.63	-12.683	7.256189
1155	115.506	-12.0652	7.244874
1166	117.359	-11.365	7.229389
1177	119.244	-10.5849	7.219962
1188	121.12	-9.769975	7.199610
1199	123.006	-8.917436	7.187699
1210	124.877	-8.039224	7.183535
1221	126.737	-7.127472	7.172221
1232	128.628	-6.212243	7.160807
1243	130.521	-5.300670	7.147506
1254	132.412	-4.425749	7.136887
1265	134.274	-3.567503	7.112365
1276	136.131	-2.705069	7.101844
1287	138.019	-1.861274	7.091820
1298	139.914	-1.019188	7.090734
1309	141.791	-0.198646	7.080513
1320	143.655	0.624866	7.068304
1331	145.513	1.476456	7.058976
1342	147.41	2.376422	7.038227
1353	149.304	3.200477	7.035452
1364	151.183	3.967309	7.026522
1375	153.025	4.692012	7.017094
1386	154.91	5.401912	7.006971
1397	156.78	6.082743	6.995954
1408	158.681	6.737062	6.986825
1419	160.549	7.363749	6.976502
1430	162.392	7.964036	6.968862
1441	164.259	8.547768	6.960129
1452	166.132	9.145018	6.950701
1463	168.012	9.694456	6.943260
1474	169.864	10.1955	6.932442
1485	171.705	10.6683	6.925099
1496	173.567	11.1209	6.917657
1507	175.44	11.5769	6.911407
1518	177.315	12.0177	6.902675
1529	179.163	12.4418	6.892155
1540	181.013	12.8333	6.885706
1551	182.887	13.1789	6.878165
1562	184.76	13.4979	6.872411
1573	186.627	13.7933	6.863183
1584	188.465	14.0668	6.855741
1595	190.32	14.3104	6.847803
1606	192.178	14.5199	6.840063
1617	194.042	14.6954	6.833515
1628	195.892	14.8347	6.823391
1639	197.73	14.956	6.814361
1650	199.591	15.0584	6.805131
1661	201.451	15.1521	6.794413
1672	203.311	15.2402	6.783794
1683	205.149	15.318	6.773769
1694	206.991	15.3917	6.761661
1705	208.856	15.4498	6.753027
1716	210.713	15.4893	6.740124
1727	212.563	15.5212	6.729107
1738	214.384	15.5408	6.717295
1749	216.227	15.5616	6.705882
1760	218.086	15.5804	6.694269
1771	219.951	15.616	6.678486
1782	221.787	15.6708	6.664986
1793	223.617	15.7252	6.651586
1804	225.467	15.782	6.637491
1815	227.325	15.8219	6.620417
1826	229.19	15.8516	6.605527
1837	231.017	15.8479	6.590538
1848	232.844	15.7932	6.573761
1859	234.689	15.6504	6.555099
1870	236.54	15.4154	6.536932
1881	238.388	15.1331	6.520751
1892	240.218	14.8309	6.499307
1903	242.04	14.4061	6.474586
1914	243.879	13.9039	6.450858
1925	245.724	13.3223	6.422563
1936	247.54	12.5735	6.391188
1947	249.355	11.7831	6.359416
1958	251.169	11.0132	6.325063
1969	253.011	9.967692	6.287432
1980	254.852	9.319215	6.248014
1991	256.655	8.692893	6.207007
2002	258.496	8.284901	6.164511
2013	260.352	8.384016	6.123802
2024	262.221	8.749125	6.084384
2035	264.058	9.206553	6.045661
2046	265.885	9.536395	6.004158
2057	267.74	9.804317	5.965037
2068	269.591	9.857281	5.924428
2079	271.433	9.701622	5.880839
2090	273.241	9.397043	5.834072
2101	275.078	9.173997	5.789292
2112	276.915	9.153912	5.740440
2123	278.765	9.002034	5.691588
2134	280.599	8.983749	5.638466
2145	282.416	9.164820	5.588124
2156	284.262	9.385737	5.532420
2167	286.107	9.599757	5.478603
2178	287.934	9.266461	5.423296
2189	289.715	8.096716	5.362130
2200	291.514	6.570118	5.293516
2211	293.37	6.124016	5.224009
2222	295.31	7.906000	5.157481
2233	297.308	12.8556	5.095025
2244	299.287	19.8477	5.026710
2255	301.234	25.9147	4.946676
2266	303.145	29.8766	4.851350
2277	305.029	32.3036	4.742915
2288	306.871	33.83	4.620279
2299	308.695	34.6015	4.481656
2310	310.512	34.6344	4.327640
2321	312.322	34.0914	4.160813
2332	314.107	33.1859	3.978594
2343	315.88	32.0507	3.780487
2354	317.683	30.85	3.571455
2365	319.487	29.7904	3.356665
2376	321.308	29.0035	3.135519
2387	323.109	28.4964	2.910003
2398	324.938	28.3623	2.688261
2409	326.789	28.7293	2.466122
2420	328.672	29.6903	2.253715
2431	330.543	31.3697	2.053919
2442	332.433	33.8399	1.874581
2453	334.356	37.0335	1.720565
2464	336.294	40.6483	1.594355
2475	338.204	44.0509	1.501114
2486	340.073	46.7799	1.430216
2497	341.935	48.6327	1.377392
2508	343.798	49.791	1.338073
2519	345.653	50.6857	1.306898
2530	347.485	51.3164	1.284461
2541	349.307	51.6435	1.265202
2552	351.141	51.8112	1.248326
2563	352.974	51.884	1.232741
2574	354.797	51.9245	1.220334
2585	356.594	51.9113	1.207728
2596	358.425	51.9119	1.192540
2607	360.255	51.8925	1.183112
2618	362.086	51.9109	1.174181
2629	363.881	51.93	1.162270
2640	365.698	51.9506	1.155524
2651	367.531	51.8518	1.146096
2662	369.37	51.1301	1.134185
2673	371.179	50.0923	1.129722
2684	372.99	49.2426	1.120294
2695	374.809	48.4972	1.111462
2706	376.647	47.7255	1.104318
2717	378.462	47.1228	1.095784
2728	380.247	46.7062	1.087349
2739	382.054	46.4035	1.078914
2750	383.878	46.3951	1.075345
2761	385.706	46.477	1.065023
2772	387.499	46.4554	1.060461
2783	389.301	46.4544	1.055303
2794	391.117	46.4292	1.046173
2805	392.951	46.3959	1.035355
2816	394.774	47.2232	1.034070
2827	396.578	48.6295	1.027919
2838	398.396	49.3137	1.020875
2849	400.223	49.6185	1.016511
2860	402.025	49.7263	1.008871
2871	403.798	49.6493	1.002918
2882	405.601	49.5043	0.990114
2893	407.409	49.3328	0.980388
2904	409.21	49.0777	0.983572
2915	410.984	48.7932	0.983677
2926	412.771	48.5732	0.976235
2937	414.575	48.2644	0.974453
2948	416.382	47.952	0.969395
2959	418.166	47.6767	0.964733
2970	419.945	47.4717	0.960370
2981	421.745	47.2096	0.954517
2992	423.548	46.9582	0.952040
3003	425.344	46.6698	0.947378
3014	427.111	46.4424	0.941525
3025	428.904	46.16	0.937460
3036	430.7	45.8818	0.934784
3047	432.5	45.7002	0.931613
3058	434.264	45.5362	0.927845
3069	436.058	45.3109	0.922190
3080	437.856	45.0588	0.919912
3091	439.651	44.6895	0.919025
3102	441.404	44.2387	0.913866
3113	443.179	43.8358	0.909304
3124	444.971	43.4031	0.907225
3135	446.76	42.956	0.906138
3146	448.535	42.5384	0.900881
3157	450.301	42.0941	0.898801
3166	451.782	41.7313	0.897019