File: TGA/TPS.txt
[TA Ascii File]
DTG-60

File Name :	C:\TAData\Caro Iacovone\TPS.txt

[File Information]
File Name:	TPS.tad
Sample Name:	TPS
Lot No:	001
Acquire Date:	22/03/22
Acquire Time:	13:07:00(-0300)
Detector Type:	DTG-60
Detector Serial No:	C30564800519TK
Operator:	Carolina Iacovone
Atmosphere:	Nitrogen
Gas Flow:	30[ml/min]
Annotation:
Pan Name:	Aluminum
Sample Weight:	7.971[mg]
Molecular Weight:	0.00

[Measurements Program]
[Temperature Program]
Start Temp.
Temp. Rate	Hold Temp.	Hold Time	Gas
[ C/min  ]	[   C  ]	[ min  ]
3.00	30.0	10
10.00	450.0	0

[Data]
Time	Temp	DTA	TGA
sec	C	uV	mg
0.000000	26.9322	-2.218030	7.969227
11	27.0878	-2.246780	7.967937
22	27.437	-2.751405	7.967938
33	27.8312	-3.271550	7.961882
44	28.2312	-3.657361	7.966451
55	28.573	-3.934094	7.963573
66	28.8626	-3.993352	7.963176
77	29.1171	-3.883111	7.964170
88	29.3129	-3.691079	7.970327
99	29.438	-3.475678	7.963972
110	29.5527	-3.255197	7.957518
121	29.6571	-3.042421	7.955333
132	29.7474	-2.841249	7.963079
143	29.7973	-2.656724	7.943318
154	29.8208	-2.489596	7.950766
165	29.8648	-2.333205	7.951362
176	29.9095	-2.198473	7.948184
187	29.9345	-2.072210	7.944112
198	29.9186	-1.962688	7.944709
209	29.9344	-1.860859	7.941829
220	29.9472	-1.768015	7.943517
231	29.9664	-1.686198	7.946893
242	29.9412	-1.612181	7.940141
253	29.9295	-1.548775	7.938155
264	29.9351	-1.479467	7.936665
275	29.9455	-1.422545	7.938551
286	29.9294	-1.374882	7.933288
297	29.8933	-1.328157	7.932097
308	29.9005	-1.287651	7.925443
319	29.905	-1.246675	7.932494
330	29.9026	-1.213673	7.931997
341	29.8711	-1.180660	7.931302
352	29.8599	-1.154191	7.930508
363	29.8635	-1.118978	7.922067
374	29.8721	-1.094394	7.923060
385	29.8437	-1.076536	7.917896
396	29.8239	-1.049828	7.927032
407	29.8351	-1.032031	7.927628
418	29.8426	-1.008297	7.921670
429	29.8258	-0.988458	7.919882
440	29.7979	-0.968446	7.920577
451	29.7951	-0.947207	7.920477
462	29.8121	-0.924186	7.924450
473	29.8187	-0.917375	7.913626
484	29.7821	-0.903821	7.916406
495	29.7783	-0.885929	7.912632
506	29.7883	-0.865053	7.904887
517	29.7977	-0.850475	7.908760
528	29.7693	-0.836779	7.914718
539	29.7565	-0.817636	7.911242
550	29.7654	-0.800445	7.904986
561	29.7748	-0.785411	7.910050
572	29.7737	-0.776201	7.908362
583	29.7417	-0.764998	7.905880
594	29.7459	-0.749772	7.906376
605	29.7642	-0.733124	7.898730
616	29.7641	-0.718130	7.904092
627	29.7367	-0.710249	7.904390
638	29.7389	-0.696814	7.901212
649	29.7673	-0.685167	7.900517
660	30.0612	-0.833257	7.896149
671	30.6386	-1.545903	7.897343
682	31.4853	-2.594329	7.895260
693	32.5665	-3.722932	7.897945
704	33.822	-4.812645	7.900233
715	35.1818	-5.808375	7.893088
726	36.6583	-6.700662	7.888822
737	38.2622	-7.513888	7.888132
748	39.9458	-8.242776	7.888039
759	41.6407	-8.924188	7.894102
770	43.3568	-9.580180	7.886958
781	45.1381	-10.2013	7.889049
792	46.968	-10.8242	7.882103
803	48.8201	-11.4489	7.889160
814	50.6519	-12.1291	7.871292
825	52.4928	-12.7857	7.857792
836	54.3622	-13.3491	7.856905
847	56.2472	-13.9347	7.846583
858	58.1257	-14.5484	7.841823
869	59.9944	-15.1611	7.842424
880	61.8748	-15.7637	7.834387
891	63.7587	-16.3424	7.827442
902	65.6492	-16.913	7.817419
913	67.5059	-17.4639	7.813154
924	69.407	-17.9944	7.803826
935	71.2928	-18.4974	7.795193
946	73.1701	-18.9659	7.778317
957	75.0194	-19.4081	7.773457
968	76.8919	-19.8516	7.764228
979	78.7848	-20.2815	7.760560
990	80.6743	-20.664	7.743883
1001	82.5307	-21.0067	7.730682
1012	84.3722	-21.2905	7.714203
1023	86.2526	-21.4993	7.703783
1034	88.1525	-21.6411	7.690184
1045	90.0283	-21.7124	7.679167
1056	91.8658	-21.7158	7.670136
1067	93.7262	-21.6785	7.649785
1078	95.6013	-21.553	7.634995
1089	97.4818	-21.3535	7.620999
1100	99.3482	-21.0797	7.611770
1111	101.211	-20.7567	7.595192
1122	103.095	-20.3766	7.588644
1133	104.984	-19.9067	7.572066
1144	106.853	-19.3807	7.553205
1155	108.716	-18.8087	7.542387
1166	110.599	-18.1871	7.533455
1177	112.48	-17.5102	7.516778
1188	114.349	-16.7911	7.504371
1199	116.205	-16.0138	7.491964
1210	118.091	-15.1926	7.481643
1221	119.99	-14.3188	7.465462
1232	121.872	-13.3696	7.451566
1243	123.727	-12.3712	7.441840
1254	125.596	-11.3376	7.427944
1265	127.492	-10.2918	7.411167
1276	129.406	-9.253547	7.403825
1287	131.272	-8.222107	7.387247
1298	133.13	-7.187574	7.368186
1309	135.013	-6.178145	7.361738
1320	136.912	-5.168195	7.345955
1331	138.809	-4.176207	7.340698
1342	140.665	-3.208695	7.329582
1353	142.535	-2.277134	7.315486
1364	144.421	-1.380812	7.294838
1375	146.31	-0.499465	7.293056
1386	148.173	0.364573	7.273798
1397	150.048	1.192021	7.251559
1408	151.928	1.976143	7.234286
1419	153.816	2.727980	7.221383
1430	155.685	3.449775	7.218807
1441	157.53	4.117914	7.219707
1452	159.419	4.791662	7.211371
1463	161.296	5.446407	7.202540
1474	163.166	6.080572	7.193906
1485	165.01	6.699301	7.183187
1496	166.888	7.305001	7.171873
1507	168.781	7.900314	7.165127
1518	170.669	8.478475	7.155599
1529	172.52	9.084480	7.147760
1540	174.377	9.682735	7.139822
1551	176.256	10.263	7.132181
1562	178.143	10.8135	7.121463
1573	180.006	11.307	7.114418
1584	181.844	11.7727	7.106282
1595	183.722	12.2268	7.097649
1606	185.606	12.6913	7.091597
1617	187.483	13.1634	7.082367
1628	189.333	13.6477	7.072245
1639	191.199	14.1374	7.065995
1650	193.079	14.6434	7.056170
1661	194.954	15.1745	7.047735
1672	196.804	15.7371	7.038407
1683	198.669	16.3114	7.028383
1694	200.552	16.8921	7.016473
1705	202.438	17.4767	7.006151
1716	204.295	18.0926	6.995332
1727	206.149	18.7718	6.984911
1738	208.033	19.504	6.973398
1749	209.922	20.2472	6.959601
1760	211.786	21.0145	6.946797
1771	213.637	21.8291	6.932802
1782	215.522	22.6861	6.920096
1793	217.422	23.6141	6.906995
1804	219.307	24.5927	6.891211
1815	221.151	25.5939	6.880790
1826	223.032	26.7191	6.860836
1837	224.923	27.8985	6.843564
1848	226.833	29.101	6.827185
1859	228.665	30.2038	6.810110
1870	230.516	30.4791	6.799292
1881	232.366	30.5725	6.778245
1892	234.217	30.3405	6.758390
1903	236.035	29.8883	6.736351
1914	237.853	29.139	6.714510
1925	239.696	28.347	6.688498
1936	241.545	27.6088	6.659507
1947	243.37	27.0342	6.629622
1958	245.198	26.435	6.598247
1969	247.042	25.9522	6.566774
1980	248.898	25.5472	6.529839
1991	250.74	25.0966	6.492507
2002	252.549	24.6737	6.452194
2013	254.221	24.3929	6.412577
2024	256.069	24.0307	6.372663
2035	257.95	24.1737	6.329471
2046	259.847	25.3702	6.286578
2057	261.705	26.8495	6.245670
2068	263.581	28.4884	6.203968
2079	265.443	30.0856	6.165842
2090	267.302	30.6499	6.123345
2101	269.124	30.8755	6.080054
2112	270.875	30.0782	6.037060
2123	272.672	28.0813	5.990791
2134	274.468	25.9766	5.947102
2145	276.23	23.8034	5.897356
2156	277.979	21.3921	5.849696
2167	279.765	18.9404	5.801439
2178	281.553	16.6358	5.751792
2189	283.349	14.793	5.702642
2200	285.135	13.6456	5.650911
2211	286.946	12.5637	5.594512
2222	288.758	11.1947	5.535530
2233	290.583	10.3632	5.471783
2244	292.399	10.3213	5.406545
2255	294.293	11.6942	5.342301
2266	296.26	15.6323	5.274482
2277	298.252	21.7784	5.205670
2288	300.177	27.8893	5.129907
2299	302.09	32.6122	5.039843
2310	303.977	35.4949	4.934884
2321	305.844	36.9712	4.816420
2332	307.654	38.1633	4.684152
2343	309.476	38.3536	4.538775
2354	311.303	37.8822	4.374034
2365	313.123	36.9945	4.200753
2376	314.914	35.9501	4.005922
2387	316.725	34.891	3.799572
2398	318.542	33.9327	3.583193
2409	320.37	32.95	3.358869
2420	322.169	32.2263	3.132360
2431	323.986	31.7889	2.903468
2442	325.833	31.7413	2.672491
2453	327.693	32.2625	2.445386
2464	329.552	33.5235	2.231787
2475	331.418	35.5916	2.035368
2486	333.341	38.4735	1.857023
2497	335.288	41.3949	1.708866
2508	337.211	45.0801	1.592884
2519	339.125	49.3989	1.507290
2530	341.037	53.6036	1.439272
2541	342.936	55.1238	1.394790
2552	344.794	52.6394	1.358152
2563	346.628	51.8933	1.330651
2574	348.49	52.874	1.309604
2585	350.36	54.7363	1.289352
2596	352.304	59.066	1.274364
2607	354.167	64.2793	1.260467
2618	356.02	67.4196	1.246074
2629	357.86	69.1474	1.233766
2640	359.691	70.2618	1.220962
2651	361.499	71.2354	1.210044
2662	363.328	72.0822	1.200616
2673	365.154	72.7138	1.190096
2684	366.976	73.186	1.180668
2695	368.776	73.5564	1.170843
2706	370.586	73.729	1.160521
2717	372.41	73.7847	1.150696
2728	374.219	73.7484	1.143453
2739	376.005	73.6808	1.133727
2750	377.814	73.5231	1.131449
2761	379.633	73.3641	1.121326
2772	381.441	73.1452	1.110706
2783	383.214	72.8576	1.104257
2794	385.022	72.6179	1.097610
2805	386.844	72.3664	1.091260
2816	388.651	72.0753	1.084116
2827	390.427	71.7324	1.076773
2838	392.232	71.3925	1.071119
2849	394.046	70.9161	1.064968
2860	395.842	70.4832	1.057724
2871	397.614	70.0781	1.052467
2882	399.416	69.6361	1.046714
2893	401.228	69.1742	1.041854
2904	403.024	68.7368	1.037490
2915	404.8	68.2973	1.032531
2926	406.601	67.8946	1.026380
2937	408.414	67.5104	1.023208
2948	410.22	67.2452	1.019738
2959	411.998	66.9871	1.012793
2970	413.794	66.6351	1.007436
2981	415.602	66.3176	1.003470
2992	417.395	66.025	0.997915
3003	419.17	65.6423	0.993948
3014	420.964	65.3005	0.990975
3025	422.772	64.9377	0.985321
3036	424.569	64.6045	0.981454
3047	426.339	64.3236	0.976495
3058	428.152	63.9877	0.973918
3069	429.955	63.6355	0.970846
3080	431.746	63.2613	0.965688
3091	433.507	62.8207	0.962318
3102	435.305	62.4075	0.958053
3113	437.105	62.0719	0.953094
3124	438.886	61.6988	0.950816
3135	440.651	61.3511	0.946154
3146	442.451	60.9989	0.942883
3157	444.257	60.6725	0.937229
3168	446.034	60.3076	0.935348
3179	447.809	59.9618	0.928998
3190	449.593	59.5586	0.925926
3201	451.403	59.1774	0.921264
3203	451.702	59.0977	0.920272